#Refractive index of ZrO2[s];  Dowling & Randall (1977) in Infrared Emissivities of Micron-Sized Particles of C, MgO, Al2O3, and ZrO2.
#Data points: 121
#Wavelength (micron) n  k
      4.545455e+00       1.370000e+00       4.000000e-02 
      4.576659e+00       1.380000e+00       6.000000e-02 
      4.608295e+00       1.410000e+00       7.000000e-02 
      4.640371e+00       1.390000e+00       7.000000e-02 
      4.672897e+00       1.390000e+00       6.000000e-02 
      4.705882e+00       1.380000e+00       7.000000e-02 
      4.739336e+00       1.370000e+00       9.000000e-02 
      4.773270e+00       1.390000e+00       9.000000e-02 
      4.807692e+00       1.390000e+00       9.000000e-02 
      4.842615e+00       1.400000e+00       9.000000e-02 
      4.878049e+00       1.390000e+00       1.100000e-01 
      4.914005e+00       1.440000e+00       1.100000e-01 
      4.950495e+00       1.450000e+00       4.000000e-02 
      4.987531e+00       1.370000e+00       5.000000e-02 
      5.025126e+00       1.390000e+00       1.000000e-01 
      5.063291e+00       1.380000e+00       5.000000e-02 
      5.102041e+00       1.370000e+00       7.000000e-02 
      5.141388e+00       1.360000e+00       1.000000e-01 
      5.181347e+00       1.380000e+00       1.100000e-01 
      5.221932e+00       1.380000e+00       1.000000e-01 
      5.263158e+00       1.390000e+00       1.100000e-01 
      5.305040e+00       1.400000e+00       9.000000e-02 
      5.347594e+00       1.410000e+00       1.000000e-01 
      5.390836e+00       1.410000e+00       8.000000e-02 
      5.434783e+00       1.380000e+00       6.000000e-02 
      5.479452e+00       1.340000e+00       8.000000e-02 
      5.524862e+00       1.380000e+00       1.200000e-01 
      5.571031e+00       1.380000e+00       1.000000e-01 
      5.617978e+00       1.370000e+00       1.200000e-01 
      5.665722e+00       1.400000e+00       1.200000e-01 
      5.714286e+00       1.390000e+00       9.000000e-02 
      5.763689e+00       1.350000e+00       1.000000e-01 
      5.813953e+00       1.420000e+00       1.600000e-01 
      5.865103e+00       1.410000e+00       5.000000e-02 
      5.917160e+00       1.330000e+00       1.400000e-01 
      5.970149e+00       1.430000e+00       1.900000e-01 
      6.024096e+00       1.450000e+00       8.000000e-02 
      6.079027e+00       1.390000e+00       8.000000e-02 
      6.134969e+00       1.360000e+00       8.000000e-02 
      6.191950e+00       1.380000e+00       1.100000e-01 
      6.250000e+00       1.360000e+00       1.200000e-01 
      6.309148e+00       1.370000e+00       1.400000e-01 
      6.369427e+00       1.400000e+00       1.600000e-01 
      6.430868e+00       1.480000e+00       3.000000e-02 
      6.493506e+00       1.330000e+00       7.000000e-02 
      6.557377e+00       1.380000e+00       1.500000e-01 
      6.622517e+00       1.330000e+00       1.100000e-01 
      6.688963e+00       1.340000e+00       1.500000e-01 
      6.756757e+00       1.370000e+00       2.000000e-01 
      6.825939e+00       1.430000e+00       1.800000e-01 
      6.896552e+00       1.450000e+00       1.300000e-01 
      6.968641e+00       1.430000e+00       1.200000e-01 
      7.042254e+00       1.410000e+00       9.000000e-02 
      7.117438e+00       1.390000e+00       9.000000e-02 
      7.194245e+00       1.370000e+00       1.300000e-01 
      7.272727e+00       1.400000e+00       1.500000e-01 
      7.352941e+00       1.410000e+00       1.300000e-01 
      7.434944e+00       1.420000e+00       1.000000e-01 
      7.518797e+00       1.420000e+00       1.100000e-01 
      7.604563e+00       1.400000e+00       7.000000e-02 
      7.692308e+00       1.380000e+00       8.000000e-02 
      7.782101e+00       1.380000e+00       1.000000e-01 
      7.874016e+00       1.370000e+00       8.000000e-02 
      7.968127e+00       1.370000e+00       7.000000e-02 
      8.064516e+00       1.320000e+00       1.000000e-01 
      8.163265e+00       1.350000e+00       1.200000e-01 
      8.264463e+00       1.340000e+00       1.000000e-01 
      8.368201e+00       1.320000e+00       1.300000e-01 
      8.474576e+00       1.340000e+00       1.300000e-01 
      8.583691e+00       1.340000e+00       1.300000e-01 
      8.695652e+00       1.330000e+00       1.500000e-01 
      8.810573e+00       1.360000e+00       1.500000e-01 
      8.928571e+00       1.370000e+00       1.200000e-01 
      9.049774e+00       1.340000e+00       1.000000e-01 
      9.174312e+00       1.330000e+00       1.300000e-01 
      9.302326e+00       1.340000e+00       1.100000e-01 
      9.433962e+00       1.320000e+00       1.100000e-01 
      9.569378e+00       1.330000e+00       9.000000e-02 
      9.708738e+00       1.300000e+00       1.000000e-01 
      9.852217e+00       1.310000e+00       1.100000e-01 
      1.000000e+01       1.300000e+00       8.000000e-02 
      1.015228e+01       1.260000e+00       6.000000e-02 
      1.030928e+01       1.210000e+00       1.000000e-01 
      1.047120e+01       1.220000e+00       1.300000e-01 
      1.063830e+01       1.230000e+00       1.200000e-01 
      1.081081e+01       1.200000e+00       1.100000e-01 
      1.098901e+01       1.180000e+00       1.300000e-01 
      1.117318e+01       1.160000e+00       1.400000e-01 
      1.136364e+01       1.150000e+00       1.600000e-01 
      1.156069e+01       1.150000e+00       1.600000e-01 
      1.176471e+01       1.100000e+00       1.400000e-01 
      1.197605e+01       1.060000e+00       1.800000e-01 
      1.219512e+01       1.040000e+00       1.900000e-01 
      1.242236e+01       9.900000e-01       2.400000e-01 
      1.265823e+01       9.900000e-01       2.800000e-01 
      1.290323e+01       9.500000e-01       3.000000e-01 
      1.315789e+01       9.100000e-01       3.800000e-01 
      1.342282e+01       9.400000e-01       4.400000e-01 
      1.369863e+01       9.300000e-01       4.800000e-01 
      1.398601e+01       9.800000e-01       5.300000e-01 
      1.428571e+01       9.800000e-01       5.400000e-01 
      1.459854e+01       9.700000e-01       5.500000e-01 
      1.492537e+01       9.200000e-01       6.100000e-01 
      1.526718e+01       9.400000e-01       6.600000e-01 
      1.562500e+01       9.600000e-01       7.500000e-01 
      1.600000e+01       9.600000e-01       7.800000e-01 
      1.639344e+01       9.700000e-01       8.600000e-01 
      1.680672e+01       9.500000e-01       9.000000e-01 
      1.724138e+01       1.210000e+00       1.100000e+00 
      1.769912e+01       1.210000e+00       9.500000e-01 
      1.818182e+01       1.200000e+00       9.600000e-01 
      1.869159e+01       1.160000e+00       9.700000e-01 
      1.923077e+01       1.140000e+00       1.060000e+00 
      1.980198e+01       1.220000e+00       1.170000e+00 
      2.040816e+01       1.290000e+00       1.180000e+00 
      2.105263e+01       1.420000e+00       1.160000e+00 
      2.173913e+01       1.380000e+00       1.080000e+00 
      2.247191e+01       1.250000e+00       1.080000e+00 
      2.325581e+01       1.010000e+00       1.260000e+00 
      2.409639e+01       1.260000e+00       1.570000e+00 
      2.500000e+01       1.280000e+00       1.760000e+00 
